Wavelength,Count
350,0.66
351,-4.73
352,0.04
353,1.62
354,2.41
355,1.95
356,2.39
357,3.05
358,3.52
359,-2.12
360,2.64
361,1.62
362,1.13
363,0.53
364,1.3
365,0.56
366,1.95
367,4.77
368,0.43
369,4.49
370,0.66
371,4.47
372,1.68
373,2.55
374,1.59
375,5.62
376,4.43
377,2.63
378,3.99
379,4.49
380,6.13
381,6.96
382,5.65
383,7.71
384,3.31
385,3.71
386,6.62
387,5.63
388,4.01
389,6.61
390,8.21
391,5.27
392,5.59
393,5.8
394,3.21
395,9.72
396,7.53
397,7.3
398,9.6
399,11.33
400,8.88
401,8.51
402,9.31
403,9.74
404,7.31
405,10.04
406,7.96
407,9.5
408,12.61
409,11.29
410,7.52
411,10.67
412,9.78
413,11.9
414,9.93
415,9.12
416,12.3
417,14
418,10.04
419,15.58
420,13.09
421,16.61
422,21.62
423,17.63
424,13.63
425,13.62
426,20
427,19.59
428,20.77
429,18.6
430,20.79
431,19.25
432,15.89
433,20.2
434,29.8
435,27.56
436,25.38
437,22.02
438,30.47
439,26.02
440,26.75
441,31.58
442,33.86
443,30.84
444,34.16
445,35.59
446,34.19
447,35.11
448,34.68
449,38.64
450,40.29
451,42.49
452,37.66
453,42.51
454,41.84
455,39.81
456,45.25
457,47.05
458,50.6
459,47.24
460,49.19
461,51.2
462,54.69
463,53.67
464,57.34
465,57.62
466,58.7
467,64.81
468,63.74
469,65.45
470,73.29
471,77.43
472,77.64
473,86.63
474,83.91
475,85.88
476,93.19
477,101.92
478,102.85
479,107.86
480,121.5
481,115.22
482,132.27
483,141.44
484,139.74
485,141.15
486,154.84
487,153.65
488,167.96
489,175.57
490,174.69
491,171.89
492,182.69
493,198.09
494,203.41
495,218.35
496,230.46
497,236.09
498,241.45
499,245.17
500,260.82
501,258.35
502,271.86
503,279.23
504,287.43
505,289.28
506,296.46
507,301.26
508,307.33
509,319.25
510,328.34
511,334.24
512,349.16
513,345.49
514,364.15
515,357.41
516,369.22
517,369.17
518,388.66
519,398.71
520,399.27
521,395.02
522,410.3
523,418.87
524,419.34
525,441.23
526,444.33
527,450.82
528,446.55
529,458.89
530,472.64
531,487.73
532,490.45
533,492.79
534,508.13
535,510.01
536,521.05
537,532.57
538,541.28
539,562.06
540,557.98
541,577.62
542,586.09
543,584.51
544,593.43
545,606.92
546,624.15
547,626.07
548,643
549,646.17
550,648.22
551,659.2
552,673.12
553,683.48
554,681.81
555,692.18
556,695.94
557,710.64
558,740.84
559,753.48
560,734.47
561,741.61
562,747.07
563,761.94
564,776.06
565,776.55
566,791.18
567,784.95
568,784.4
569,804.24
570,805.82
571,811.99
572,823.67
573,816.22
574,826.99
575,845.81
576,844.95
577,855.89
578,866.87
579,877.03
580,887.84
581,872.23
582,899.08
583,917.79
584,916.17
585,924.52
586,931.72
587,922.35
588,959.51
589,950.04
590,972.51
591,973.38
592,985.88
593,995.64
594,998.78
595,1014.66
596,1021.46
597,1022.4
598,1012.36
599,1041.72
600,1045.88
601,1080.04
602,1078.65
603,1082.67
604,1090.68
605,1112.42
606,1127.12
607,1121.5
608,1136.25
609,1139.9
610,1145.7
611,1142.67
612,1179.06
613,1150.59
614,1168.22
615,1189.42
616,1193.17
617,1178.05
618,1219.84
619,1199.14
620,1199.14
621,1208.14
622,1226.57
623,1227.56
624,1211.57
625,1233.61
626,1253.61
627,1255.83
628,1229.86
629,1222.29
630,1248.22
631,1244.54
632,1262.6
633,1289.37
634,1272.21
635,1274.16
636,1286.63
637,1278.48
638,1313.06
639,1291.05
640,1310.63
641,1297.83
642,1322.9
643,1331.58
644,1317.71
645,1309.46
646,1301.43
647,1337.08
648,1333.55
649,1330.58
650,1338.68
651,1347.02
652,1351.24
653,1335.82
654,1375.36
655,1362.2
656,1342.89
657,1367.95
658,1367.28
659,1363.35
660,1348.21
661,1370.03
662,1369.52
663,1384.81
664,1387.32
665,1382.24
666,1422.07
667,1401.84
668,1374.47
669,1382.57
670,1385.79
671,1392.58
672,1379.57
673,1382.23
674,1396.9
675,1385.18
676,1399.76
677,1396.06
678,1420.77
679,1381.26
680,1401.33
681,1370.88
682,1376.66
683,1403.04
684,1391.01
685,1377.78
686,1387.69
687,1372.4
688,1391.34
689,1384.97
690,1394.11
691,1375.68
692,1380.31
693,1390.66
694,1351.27
695,1354.41
696,1369.1
697,1367.11
698,1402
699,1371.27
700,1351.17
701,1338.43
702,1373.86
703,1314.1
704,1342.4
705,1394.67
706,1392.11
707,1380.78
708,1381.81
709,1381.85
710,1374.35
711,1358.18
712,1416.75
713,1381.16
714,1363.02
715,1356.39
716,1347.22
717,1345.68
718,1367.94
719,1371.99
720,1348.9
721,1389.25
722,1364.95
723,1392.15
724,1381.14
725,1389.4
726,1380.82
727,1354.08
728,1339.63
729,1345.66
730,1352.63
731,1358.86
732,1375.44
733,1351.11
734,1349.96
735,1343.39
736,1346.49
737,1358.97
738,1333.8
739,1337.6
740,1345.27
741,1326.82
742,1307.17
743,1279.71
744,1297.57
745,1296.95
746,1334.56
747,1323.29
748,1310.68
749,1295.36
750,1271.18
751,1306.02
752,1246.58
753,1251.13
754,1287.49
755,1259.17
756,1236.98
757,1235.06
758,1226.14
759,1243.9
760,1214.17
761,1187.75
762,1182.84
763,1218.54
764,1182.78
765,1183.01
766,1202.81
767,1152.08
768,1120.74
769,1165.81
770,1129.06
771,1103.22
772,1116.6
773,1115.68
774,1078.09
775,1086.44
776,1088.17
777,1070.48
778,1077.49
779,1043.76
780,1091.74
781,1077.9
782,1039.01
783,1074.13
784,1064.37
785,1115.2
786,1097.9
787,1107.02
788,1108.36
789,1098.99
790,1125.27
791,1135.29
792,1101.53
793,1136.63
794,1158.98
795,1172.08
796,1159.78
797,1131.22
798,1152.34
799,1117.71
800,1156.52
801,1150.08
802,1162.46
803,1154.03
804,1157.78
805,1124.48
806,1135.04
807,1133.68
808,1140.63
809,1110.63
810,1103.09
811,1090.28
812,1078.09
813,1078.55
814,1070.42
815,1086.78
816,1064.25
817,1059
818,1054.19
819,1046.69
820,1046.35
821,1043.55
822,1052.43
823,1052.67
824,1001.7
825,1042.39
826,1016.42
827,1007.17
828,1008.49
829,968.26
830,1017.98
831,979.44
832,991.82
833,965.53
834,953.27
835,945.33
836,982.27
837,920.18
838,950.48
839,950.24
840,953.17
841,950.55
842,927.4
843,917.6
844,933.67
845,897.9
846,898.54
847,878.36
848,904.89
849,897.26
850,895.53
851,887.87
852,874.61
853,865.13
854,882.72
855,853.73
856,835.66
857,809.82
858,807.49
859,802.7
860,800.44
861,759.44
862,812.74
863,779.58
864,783
865,755.91
866,745.93
867,759.94
868,767.83
869,743.66
870,757.77
871,725.6
872,736.34
873,744.66
874,674.52
875,669.81
876,694.46
877,682.2
878,668.95
879,671.77
880,650.27
881,631.88
882,620.61
883,617.38
884,615.57
885,590.45
886,574.08
887,570.73
888,562.46
889,548.64
890,543.89
891,553.82
892,551.08
893,533.4
894,527.2
895,508.8
896,530.82
897,518.82
898,512.13
899,511.09
900,516.69
901,519.48
902,528
903,510.14
904,503.66
905,512.2
906,538.68
907,515.88
908,509.63
909,495.59
910,526.05
911,517.29
912,511.42
913,500.47
914,495.23
915,500.15
916,496.89
917,491.95
918,478.14
919,483.34
920,460.01
921,439.69
922,441.16
923,445.98
924,442.42
925,435.05
926,441.99
927,416.17
928,403.55
929,398.04
930,397.22
931,386.31
932,386.93
933,373.44
934,371.9
935,364.04
936,347.1
937,363.47
938,349.61
939,336.62
940,331.86
941,331.17
942,322.76
943,309.84
944,321.67
945,307.56
946,297.67
947,292.32
948,275.48
949,288.16
950,280.55
951,268.14
952,258.72
953,249.6
954,254.27
955,258.67
956,250.71
957,229.32
958,241.19
959,228.93
960,225.99
961,221.22
962,221.11
963,218.6
964,216.44
965,207.55
966,205.53
967,200
968,188.73
969,182.63
970,180.96
971,176.95
972,180.44
973,175.54
974,174.9
975,168.48
976,164.68
977,164.08
978,161.07
979,154.77
980,152.37
981,147.55
982,159.42
983,146.62
984,142.68
985,137.61
986,136.51
987,128.5
988,127.75
989,127.99
990,129.9
991,119.32
992,116.2
993,110.76
994,105.41
995,109.25
996,109.61
997,108.11
998,96.54
999,96.16
1000,94.76