Wavelength,Count
350,0.25
351,-0.8
352,-1.06
353,-0.27
354,1.88
355,1.61
356,3.3
357,0.41
358,-0.48
359,3.68
360,1.86
361,3.71
362,6.22
363,1.93
364,3.8
365,7.09
366,5.97
367,2.35
368,5.23
369,2.62
370,8.24
371,7.01
372,5.81
373,5.3
374,10.26
375,7.87
376,7.89
377,9.74
378,9.79
379,8.42
380,5.19
381,13.49
382,14.09
383,18.15
384,17.6
385,17.75
386,15.97
387,15.77
388,17.56
389,14.71
390,21.22
391,18.88
392,20.73
393,23.2
394,23.99
395,20.82
396,21.49
397,23.08
398,24.39
399,27.89
400,28.43
401,26.55
402,28.96
403,30.56
404,34.62
405,32.44
406,33.13
407,32.12
408,35.49
409,39
410,38.34
411,43.62
412,41.82
413,40.45
414,47.88
415,42.98
416,44.24
417,47.56
418,52.15
419,50.79
420,54.7
421,58.12
422,54.64
423,55.86
424,60.93
425,64.81
426,66.02
427,64.35
428,72.82
429,70.94
430,70.26
431,78.83
432,78.83
433,84.44
434,85.16
435,87.4
436,89.81
437,99.65
438,98.71
439,101.2
440,104.74
441,105.17
442,111.13
443,111.88
444,116.46
445,121.74
446,126.55
447,133.33
448,126.78
449,132.64
450,140.62
451,137.52
452,146.42
453,146.98
454,148.65
455,155.51
456,155.72
457,157.12
458,162.74
459,166.48
460,173.82
461,172.86
462,189.95
463,183.48
464,193.46
465,211.74
466,214.83
467,227.74
468,228.86
469,239.34
470,243.17
471,257.28
472,279.8
473,290.31
474,298.32
475,305.74
476,334.78
477,344.63
478,355.96
479,381.4
480,403.42
481,423.02
482,436.92
483,466.09
484,471.11
485,477.6
486,510.11
487,522.91
488,552.27
489,594.61
490,588.76
491,597.53
492,599.61
493,646.17
494,676.95
495,716.27
496,764.12
497,768.24
498,776.06
499,805.16
500,858.52
501,870.64
502,881.73
503,926.5
504,929.64
505,948.78
506,966.75
507,1005.06
508,1013.36
509,1018.55
510,1045.09
511,1074.37
512,1056.1
513,1107.1
514,1126.36
515,1193.41
516,1172.54
517,1191.15
518,1229.42
519,1241.76
520,1253.74
521,1234.74
522,1278.3
523,1301.39
524,1312.53
525,1306.8
526,1336.87
527,1338.02
528,1335
529,1390
530,1383.02
531,1435.14
532,1477.19
533,1458.77
534,1482.01
535,1555.82
536,1565.44
537,1536.76
538,1592.49
539,1613.28
540,1619.82
541,1663.62
542,1677.3
543,1710.11
544,1689.39
545,1742.6
546,1742.78
547,1791.5
548,1782.95
549,1825.46
550,1868.97
551,1894.92
552,1875.05
553,1931.08
554,1882.24
555,1921.76
556,1966.92
557,1973.17
558,2026.59
559,2008.41
560,2044.44
561,2042.66
562,2087.16
563,2003.23
564,2018.39
565,2087.69
566,2067.06
567,2121.59
568,2173.83
569,2090.5
570,2124.59
571,2189.94
572,2155.27
573,2156.95
574,2145.73
575,2172.42
576,2129.52
577,2182.15
578,2243.86
579,2243.84
580,2295.12
581,2334
582,2317.15
583,2289.42
584,2305.42
585,2352.29
586,2359.77
587,2342.61
588,2419.19
589,2339.73
590,2363.63
591,2413.57
592,2416.37
593,2444.81
594,2448.48
595,2428.72
596,2481.46
597,2555.15
598,2481.5
599,2570.03
600,2546.65
601,2609.71
602,2599.13
603,2595.04
604,2589.66
605,2597.84
606,2612.01
607,2636.96
608,2664.4
609,2714.75
610,2724.49
611,2702.98
612,2773.66
613,2678.65
614,2697.05
615,2784.05
616,2748.72
617,2725.38
618,2766.97
619,2787.33
620,2777.67
621,2810.78
622,2799.54
623,2753.19
624,2785.86
625,2743.79
626,2770.77
627,2832.44
628,2787.61
629,2757.12
630,2793.21
631,2823.42
632,2802.17
633,2718.02
634,2876.05
635,2800.5
636,2809.99
637,2841.88
638,2786.57
639,2768.01
640,2740.3
641,2821.97
642,2777.96
643,2834.33
644,2847.25
645,2920.28
646,2790.94
647,2830.05
648,2856.96
649,2863.55
650,2811.52
651,2887.95
652,2861.44
653,2854.54
654,2902.27
655,2829.77
656,2901.97
657,2884.6
658,2874.25
659,2882.36
660,2843.76
661,2851.94
662,2837.18
663,2850.67
664,2891.03
665,2836.58
666,2823.89
667,2883.95
668,2875.05
669,2912.14
670,2929.24
671,2833.59
672,2825.91
673,2811.87
674,2817.63
675,2816.11
676,2835.71
677,2796.15
678,2806.42
679,2819.48
680,2836.67
681,2808.88
682,2737.7
683,2829.96
684,2828.97
685,2779.85
686,2708.66
687,2748.46
688,2759.51
689,2752.89
690,2711.67
691,2766.89
692,2757.84
693,2672.85
694,2739.05
695,2681.2
696,2759.53
697,2757.68
698,2614.84
699,2680.67
700,2646.38
701,2570.87
702,2616.87
703,2641.72
704,2649.24
705,2623.68
706,2665.83
707,2573.85
708,2531.97
709,2597.22
710,2554.6
711,2592.05
712,2620.71
713,2676.46
714,2584.07
715,2563.72
716,2617.55
717,2627.24
718,2560.38
719,2605.07
720,2552.44
721,2527.67
722,2475.64
723,2500.9
724,2670.47
725,2587.58
726,2543.79
727,2519.48
728,2491.36
729,2533.74
730,2533.92
731,2464.09
732,2446.15
733,2467.85
734,2537.21
735,2573.73
736,2475.58
737,2459.54
738,2469.15
739,2379.76
740,2418.05
741,2433.6
742,2408.12
743,2409.12
744,2381.91
745,2328.66
746,2366.57
747,2427.93
748,2366.92
749,2331.17
750,2201.12
751,2287.8
752,2327.58
753,2292.3
754,2284.38
755,2184.94
756,2210.97
757,2156.63
758,2154.35
759,2192.56
760,2198
761,2170.24
762,2107.73
763,2042.93
764,2052.9
765,2051.76
766,2027.35
767,1980.91
768,1957.73
769,1980
770,1927.84
771,1979.19
772,1942.74
773,1963.71
774,1985.61
775,1952.34
776,1920.95
777,1874.54
778,1870.79
779,1859
780,1924.36
781,1835.73
782,1826.92
783,1816.27
784,1784.3
785,1816.64
786,1804.16
787,1820.92
788,1867.99
789,1871.3
790,1841.07
791,1851.23
792,1896.81
793,1888.1
794,1888.65
795,1901.94
796,1933.24
797,1910.59
798,1939.78
799,1986.01
800,1920.63
801,1902.65
802,1953.44
803,1893.72
804,1875.1
805,1882.84
806,1911.25
807,1808.05
808,1797.65
809,1865.2
810,1814.99
811,1808.07
812,1834.85
813,1789.81
814,1791.69
815,1776.45
816,1753.82
817,1759.81
818,1695.7
819,1732.69
820,1733.96
821,1714.71
822,1692.14
823,1589.93
824,1603.64
825,1611.49
826,1588.39
827,1651.36
828,1657.98
829,1592.2
830,1554.16
831,1554.77
832,1556.65
833,1494.4
834,1498.75
835,1461.15
836,1508.47
837,1501.09
838,1465.62
839,1471.02
840,1481.74
841,1475.27
842,1443.29
843,1401.45
844,1416.9
845,1383.31
846,1433.7
847,1398.77
848,1371.18
849,1339.33
850,1340.28
851,1339.75
852,1298.05
853,1242.02
854,1254.42
855,1236.18
856,1230.73
857,1208.11
858,1098.67
859,1121.66
860,1132.27
861,1091.68
862,1075.25
863,1069.88
864,1043.13
865,1012.36
866,962.53
867,959.43
868,953.17
869,908.55
870,894.27
871,910.74
872,870.86
873,885.68
874,836.91
875,833.84
876,826.71
877,804.42
878,818.07
879,773.72
880,765.13
881,725.43
882,709.63
883,693.99
884,671.83
885,664.04
886,633.72
887,638.2
888,623.06
889,615.19
890,589.67
891,556.9
892,555.72
893,551.31
894,544.03
895,546.99
896,549.26
897,538.67
898,514.95
899,521.24
900,527.21
901,504.11
902,514.8
903,508.38
904,533.59
905,516.13
906,495.97
907,502.59
908,506.2
909,510.86
910,505.55
911,494.08
912,493.46
913,497.47
914,493.9
915,490.85
916,478.18
917,471.08
918,466.8
919,462.88
920,473.76
921,464.99
922,464.96
923,453.88
924,439.1
925,445.84
926,443.02
927,439.24
928,424.71
929,415.05
930,412.07
931,405.04
932,390.56
933,401.8
934,386.3
935,368.81
936,372.99
937,363.11
938,360.71
939,355.04
940,360.67
941,351.92
942,331.18
943,331.46
944,323.75
945,312.58
946,302.45
947,317.05
948,311.39
949,304.14
950,289.68
951,283.87
952,274.02
953,282.74
954,271.92
955,257.12
956,252.64
957,259.3
958,255.23
959,244.18
960,247.54
961,241.33
962,226.81
963,219.73
964,215.4
965,212.13
966,213.51
967,201.3
968,207.86
969,193.19
970,185.63
971,194.21
972,196.98
973,187.5
974,183.05
975,173.37
976,180.24
977,174.85
978,170.67
979,166.01
980,166.11
981,157.24
982,153.3
983,146.83
984,142.14
985,145.74
986,141.79
987,133.32
988,135.78
989,137.22
990,138.67
991,125.08
992,114.05
993,113.92
994,112.11
995,110.89
996,109.72
997,111.59
998,110.18
999,107.04
1000,97.64